EC-Lab ASCII FILE
freq/Hz	Re(Z)/Ohm	-Im(Z)/Ohm	|Z|/Ohm	Phase(Z)/deg
6999984	27.5529823427005	85.7689502165906	90.0859570478838	-72.1905622426417
5969734	23.0519582968078	84.1464068262298	87.2468369803922	-74.6796627920286
5091109	19.7444711318988	88.6490014106212	90.8211957165215	-77.4436684915192
4341796	18.7599415689782	96.8682781726947	98.6681241527072	-79.0395278382971
3702781	22.1335289440745	107.222244471053	109.482888219705	-78.336451327892
3157797	25.5445058923026	119.557201345581	122.255659070939	-77.9395634632049
2693047	29.8789004798263	134.048994243617	137.338565419945	-77.4344438710176
2296687	35.991090519462	152.497176723553	156.686781527462	-76.7205384582846
1958656	44.9346466754502	173.269258819587	179.00100146015	-75.4615209992641
1670375	56.7618633445761	197.564614884995	205.557014438828	-73.9702264500976
1424531	72.6734257710243	224.004889153801	235.498656425261	-72.0254931018646
1214875	92.6112284575828	252.518626559863	268.965604485225	-69.859483453152
1036062	117.346372466891	283.998402128535	307.286940078324	-67.5498905809796
883578.1	148.11198046254	315.897612123995	348.896059166878	-64.8799645514495
753531.2	185.91742198003	348.340093001336	394.849475354698	-61.9100951161684
642624.9	230.737622520323	379.059148319603	443.763099379741	-58.6706490382782
548046.8	281.92338032716	406.01892230067	494.299663808595	-55.2254251682669
467390.6	416.280494040283	440.026698916858	605.733394719235	-46.5884588292365
398593.7	480.475851827932	443.028697899428	653.552959868012	-42.6779875000009
339937.5	544.249619730538	438.66044771061	699.021199222533	-38.8685114413131
289906.2	604.44518545074	426.511123018684	739.774100839735	-35.2077179304617
247234.4	661.422805334242	408.849913096569	777.584965682394	-31.7217453020606
210843.7	711.866147868089	385.665657958234	809.624241366888	-28.4473774465572
179812.5	756.499489007301	361.703859107775	838.523200968086	-25.5537858825418
153343.8	794.873391806738	335.719990383605	862.862457721691	-22.8970837189233
130781.2	827.085357530925	309.956110189935	883.257028778222	-20.5438429219179
111531.3	854.593970514334	285.501325096944	901.022675115097	-18.4733567968096
95109.37	877.025950880019	263.2036760449	915.669532965114	-16.7049913170737
81109.37	896.762693339021	245.076812758645	929.648305713828	-15.2851560641159
69171.88	911.92731637169	227.017154481936	939.759660112067	-13.9791847137845
59000	925.481491399172	214.994783050304	950.125648354618	-13.0781799330515
50312.5	940.58026700946	206.022592573975	962.879300503697	-12.3548207166988
42906.25	949.046612754669	193.662510525729	968.604481284409	-11.5334341511772
36593.75	957.616972278787	190.865814535989	976.452776510405	-11.2720966416622
31203.13	965.763296392584	189.662534093746	984.210659106033	-11.1107001603518
26609.38	974.66135411541	193.84621752521	993.751030819549	-11.2485308875484
22703.13	982.846942819692	199.947256818904	1002.97907182524	-11.4991483567166
19359.37	992.333521540114	210.140114861299	1014.33953183642	-11.9565233758357
16500	1000.85820301329	222.525058739077	1025.2972955713	-12.5349242700202
14112.02	1009.79931826029	239.482694221258	1037.8085680849	-13.341706141344
12011.13	1020.06134578057	260.38793072406	1052.77111644575	-14.3199112553929
10236.38	1031.17086803511	285.803831871955	1070.04541464229	-15.4914781661425
8750.684	1042.01429880846	315.725428616089	1088.79582346559	-16.8565615721976
7449.463	1055.50051653765	351.498059084914	1112.48920262252	-18.4185591132833
6363.206	1069.45745506889	391.813051377308	1138.9717799103	-20.1211261198263
5414.761	1083.79976601575	442.452590631147	1170.63496777262	-22.2073456659889
4620.567	1100.68564832633	497.495090189352	1207.89497109395	-24.3223276934672
3941.215	1120.70980853553	562.9551108752	1254.15666158907	-26.6712999548988
3361.769	1141.22972302461	637.852259664345	1307.38700692402	-29.201550333132
2867.244	1163.59416103111	725.000539338832	1370.97671520244	-31.9257927616405
2442.658	1189.0562313777	826.061774038749	1447.83727535458	-34.7885019004983
2083.003	1216.33348121779	941.192380949073	1537.95651287283	-37.7325137504852
1777.843	1247.34693868688	1074.42742451305	1646.28936581552	-40.7406281185912
1513.548	1281.93162455369	1230.20430210116	1776.72488442613	-43.8203908589784
1292.065	1319.16046383984	1406.93348021486	1928.63841792796	-46.8441355157357
1101.762	1363.47306493152	1613.41757653055	2112.38610936814	-49.799388797663
939.101	1412.59769828272	1851.89340714911	2329.15037055059	-52.6641319366935
801.2801	1467.604719142	2123.5365181307	2581.33123707178	-55.3511263789406
684.3433	1533.13249271382	2437.50569787085	2879.57102141409	-57.8310939810731
582.9476	1608.92808628684	2800.96733472448	3230.1807375186	-60.1261337252491
497.0677	1693.91618258686	3222.61967614067	3640.69081503479	-62.2720898511321
423.5089	1792.77477583901	3710.17651918093	4120.61296415547	-64.2099477058235
361.5036	1906.98053319185	4264.3212778048	4671.29647039357	-65.9060746667493
308.1262	2042.66383730392	4912.12791330803	5319.91317494272	-67.4204594150596
262.7298	2204.68342273379	5655.25200056147	6069.80264788994	-68.7018222280902
224.2111	2392.1819949194	6499.65786008666	6925.89972458473	-69.7939943771685
191.2854	2613.8549657627	7474.66473345992	7918.51315965767	-70.7255091604922
163.1722	2872.65972580813	8590.63014326505	9058.20623295	-71.5103467482624
139.1537	3192.28420024238	9868.03403344955	10371.5367280088	-72.0737361482146
118.6706	3558.69754496023	11350.0883359952	11894.9078790633	-72.5917472907923
101.1982	3995.47967981423	13020.0235808009	13619.2830911329	-72.9402202217909
86.24196	4528.3274060987	14944.839430014	15615.8244958672	-73.1430472812672
73.61024	5157.67537276552	17137.5337864268	17896.8343438652	-73.2504195720747
62.69291	5940.71510139757	19624.8805028429	20504.3417516104	-73.1582306628382
53.57697	6817.34293520994	22421.1306575297	23434.6594739133	-73.0876422624781
45.65746	7872.51460198081	25621.181566707	26803.3846935899	-72.9195937411662
38.96512	9120.06138175278	29232.6069603137	30622.2276998771	-72.6729927061419
33.18414	10617.2981329477	33363.2764807201	35011.9299264246	-72.3472089038305
28.30617	12387.7666702297	37964.5959703411	39934.5378121156	-71.9286059387079
24.17237	14470.0756575546	43104.4320054068	45468.3972451646	-71.4431960946731
20.61345	16880.49181848	48921.0632957319	51751.5356102481	-70.9627136876764
17.55618	19781.2701959078	55459.0912020129	58881.3166251969	-70.369587778157
14.98558	23114.524042074	62612.9772228837	66743.2853432086	-69.7376153301277
12.76553	27020.7983012003	70642.4868482619	75633.8845289662	-69.0681141465173
10.8809	31565.6108914387	79479.1062753646	85517.9286774441	-68.3391972395519
9.278505	36787.7763683321	89330.76021938	96609.1362734331	-67.6173850092461
7.923394	42658.4490226893	99731.1903565725	108471.441416441	-66.841943929316
6.75822	49310.2694777127	111473.929520809	121893.148448857	-66.1378933906592
5.761429	56693.096136681	124626.597663877	136915.652848157	-65.5390379031885
4.919708	64892.0294516642	138715.326004884	153143.452863637	-64.9294681049488
4.191257	74203.7347987185	154418.358765698	171321.988612	-64.3339930684694
3.564097	84251.7440309603	172035.205133734	191558.002123807	-63.9073686942149
3.051758	95099.4540034445	190760.979418566	213151.723944433	-63.5025167161755
2.604164	107179.491089748	211774.464122118	237351.778936809	-63.1559345459009
2.214424	121084.418021586	235631.010110154	264921.515194893	-62.8025914736437
1.892567	135156.936262308	261878.831955021	294699.711648891	-62.7015217185826
1.607507	151189.764709549	291635.284597058	328495.790193627	-62.5968423294122
1.376413	168618.916587101	324153.864901061	365387.557480141	-62.5173730832276
1.17375	187449.249473813	361420.911814443	407139.161252119	-62.5867009764384
1.001604	208257.536492466	402785.260285113	453439.265402608	-62.6590655459634
