EC-Lab ASCII FILE
freq/Hz	Re(Z)/Ohm	-Im(Z)/Ohm	|Z|/Ohm	Phase(Z)/deg
6999984	41.72893187343	68.4309695688553	80.1504918976232	-58.6253280766834
5969734	40.0609446378368	65.0535037091965	76.3991991457913	-58.3746017455342
5091109	40.854919536498	65.5404016319154	77.2312676084402	-58.0624543387469
4341796	45.1071211758793	66.9305241130678	80.7115074746186	-56.0224151908718
3702781	52.8028723156142	67.1419395436896	85.4176993981196	-51.8171971830871
3157797	60.1078275449777	66.6844247525379	89.776185242823	-47.9692183605664
2693047	67.5637318692841	65.9236153342041	94.3969328041787	-44.296060420496
2296687	75.8149022229145	64.8251839296463	99.750708621957	-40.5319454304487
1958656	83.955070382253	62.2837126883798	104.535710210137	-36.5705954490055
1670375	91.831507770287	58.9752761779669	109.138027376491	-32.7090547154741
1424531	98.8558954125204	54.7739387426531	113.016248491954	-28.9898997236107
1214875	104.899445230388	50.2428086866003	116.310934285481	-25.5926324210517
1036062	110.031227542228	45.1230175680956	118.924168060577	-22.298182394829
883578.1	114.023236851604	41.0117921215343	121.174525520577	-19.7826054657292
753531.2	117.415003689127	36.683506311028	123.01204301445	-17.3501647127028
642624.9	120.150524875976	32.6615616360075	124.510747473763	-15.207720818104
548046.8	122.341862713337	29.0709910034259	125.748375298014	-13.3667787744589
467390.6	124.061730375064	25.7902664889007	126.714051269871	-11.7435320450737
398593.7	125.398153901688	22.9849599486212	127.487275387746	-10.3867794453599
339937.5	126.473762670042	20.5997600572781	128.140402521358	-9.25097083060432
289906.2	127.256046057821	18.5865713121774	128.606228042864	-8.30966419856184
247234.4	128.043384852385	16.8706755014633	129.150021666013	-7.50591327397437
210843.7	128.718566097489	15.4070281970476	129.637362577531	-6.82557172888013
179812.5	129.10213977673	14.5337486313336	129.917636771183	-6.42306314822278
153343.8	129.619026639821	13.788005236118	130.350301708303	-6.071908774743
130781.2	130.030774372142	13.3605862602245	130.715368450064	-5.86652059392245
111531.3	130.428879331007	13.1556938166824	131.090674128028	-5.75965250597465
95109.37	130.831152754291	13.1125377749655	131.48661216229	-5.72335047303296
81109.37	130.97265983826	13.5616689617216	131.672914793195	-5.91166966817876
69171.88	131.644004125078	14.1878261131367	132.406337582082	-6.15126342936862
59000	132.098241639938	15.0050648526344	132.947724371631	-6.48046206013898
50312.5	132.664510181553	16.2200551730655	133.652394110726	-6.97059880598364
42906.25	133.172912456445	17.5730984595239	134.327355373357	-7.51714897633689
36593.75	133.807980359948	19.346538938073	135.199349765043	-8.22706087323783
31203.13	134.401032643042	21.3712288070893	136.08955505931	-9.03501157846361
26609.38	135.272962863495	23.927204694065	137.372797912615	-10.0307778489333
22703.13	136.181365746402	26.7934976016208	138.792131946603	-11.1306963874018
19359.37	137.172856615691	30.1643227413779	140.450272191103	-12.4019579545042
16500	138.278988483049	34.0690872670054	142.414119254736	-13.8408325949942
14112.02	139.548291657784	38.4023928858772	144.73586108483	-15.3864091656714
12011.13	140.981401901197	43.6324241485392	147.578941990735	-17.1968068292581
10236.38	142.523934970618	49.5448283182508	150.889900432712	-19.1687098361362
8750.684	144.249750249719	56.3166287224003	154.853327758118	-21.3261996024352
7449.463	146.222479326516	64.212586640738	159.700562752571	-23.708346120205
6363.206	148.401970434087	73.0618564633614	165.412151000441	-26.212131577881
5414.761	150.834326189096	83.6513328642513	172.477649122675	-29.0123482100239
4620.567	153.981680351277	95.3838356748203	181.13098573089	-31.7761132672405
3941.215	156.865539407054	108.996038395396	191.015532979276	-34.7930168079239
3361.769	160.501315857806	124.823314357545	203.326171948644	-37.8725274468813
2867.244	164.532214075788	142.826708680262	217.876841773322	-40.9605121316286
2442.658	169.246120191141	163.813481854999	235.540030647048	-44.0655136628913
2083.003	174.623765538483	187.765154567122	256.416093021585	-47.0768194059163
1777.843	180.695110901625	215.020171659149	280.863663231968	-49.9575308786971
1513.548	187.652149220987	246.827875017355	310.060202207311	-52.7559025867396
1292.065	196.122695102841	282.859628878264	344.200059825026	-55.2642258701531
1101.762	205.370587050419	324.409327152941	383.951155186773	-57.6637330091153
939.101	216.744170738526	372.312224205669	430.806717498815	-59.7938754998527
801.2801	228.925581658542	427.067989530585	484.555455669831	-61.8069054172653
684.3433	243.758907829331	488.990357399126	546.378966263777	-63.5040064064428
582.9476	260.811098750511	561.392556406571	619.018603613941	-65.0814165122175
497.0677	280.940433386584	643.647839389282	702.28916285383	-66.4196167385251
423.5089	303.567667200105	738.816938989398	798.751399314566	-67.663049745518
361.5036	330.220187178474	846.950471409874	909.049213762156	-68.6995303969096
308.1262	361.967942845318	970.20348297001	1035.52672105302	-69.5402313697051
262.7298	398.458197531022	1111.54588798098	1180.8061637149	-70.2786593760697
224.2111	441.489609069862	1271.88294767682	1346.32808316091	-70.8573467491518
191.2854	491.588314713594	1454.98043833838	1535.78225901665	-71.3316412119611
163.1722	549.716087265672	1664.96277845681	1753.36500200195	-71.7284717808687
139.1537	620.020204553315	1904.55049691171	2002.93226279397	-71.9675097729973
118.6706	699.562745546169	2174.81197217612	2284.55578817342	-72.1687898464268
101.1982	793.993157531944	2485.41162749088	2609.15620311901	-72.2833241096734
86.24196	903.805606794771	2837.4916609154	2977.95626237829	-72.3321401138186
73.61024	1031.83365629426	3236.03270003994	3396.55536242078	-72.3147221968466
62.69291	1181.07750899562	3695.10086350263	3879.26725989757	-72.2743859680694
53.57697	1355.4637757446	4198.29909718506	4411.6887193886	-72.1067958129936
45.65746	1559.11854196736	4782.58474473847	5030.30490810563	-71.9440757991765
38.96512	1798.38949708455	5437.406630939	5727.09312421262	-71.6986779755219
33.18414	2077.96905279289	6186.36398275363	6526.02901552517	-71.4330547416993
28.30617	2396.85605781592	7016.84853275081	7414.92294588798	-71.140559787285
24.17237	2778.0834868918	7953.48592508998	8424.70689227497	-70.7461356411169
20.61345	3218.229701409	9015.50064328764	9572.6827096771	-70.3551492417197
17.55618	3742.31021128703	10210.1374994189	10874.3640492004	-69.870656130157
14.98558	4333.55883947067	11532.3802566028	12319.7210438401	-69.4051279216133
12.76553	5042.07757254228	13024.0258015492	13965.9512503428	-68.8367537888435
10.8809	5862.26778158221	14683.7689155824	15810.7322129369	-68.2364086111054
9.278505	6808.79768122211	16516.4478775185	17864.8475043758	-67.5964147539443
7.923394	7878.72353539706	18520.8998667237	20127.0468877187	-66.9552749811929
6.75822	9118.21038034059	20760.1693271615	22674.3553609043	-66.2881229245425
5.761429	10550.5343387535	23204.3481801591	25490.303044477	-65.5496949181779
4.919708	12157.9905489303	25915.6148284223	28625.7895283785	-64.8669584095
4.191257	14051.2467675078	28844.6971916238	32085.1070092944	-64.0276898311924
3.564097	16108.9384305822	32129.2542115319	35941.4367207202	-63.3717677473267
3.051758	18414.7553160905	35545.8362114826	40032.6077757249	-62.6132862181325
2.604164	20904.3580763078	39359.1284054859	44566.0540705819	-62.02640554858
2.214424	23844.8415963977	43566.6461311804	49665.1701484732	-61.3072862199113
1.892567	26883.1815568264	48131.6018905832	55130.3596140174	-60.8151154738939
1.607507	30332.5809701282	53215.326663281	61253.0526601661	-60.3169859668072
1.376413	34022.6404292584	58559.3575005126	67725.4635469662	-59.8436655322496
1.17375	38009.714580567	64704.3926502439	75042.6334208303	-59.5684739032482
1.001604	42361.9045858403	71354.1529707182	82981.6010107571	-59.3030225567641
