EC-Lab ASCII FILE
freq/Hz	Re(Z)/Ohm	-Im(Z)/Ohm	|Z|/Ohm	Phase(Z)/deg
6999984	34.9343231024352	78.2538571681034	85.6975675985687	-65.9429158529762
5969734	33.1142451257985	75.4174430887989	82.3671290764932	-66.2947119391865
5091109	33.0820510096813	77.7837865026229	84.526561160932	-66.9595721646564
4341796	36.3376934638348	82.6797489721949	90.3126173708679	-66.2745438247979
3702781	44.0738437307006	87.771545262426	98.2158228543258	-63.3368173218237
3157797	52.6286975772864	92.6346624805754	106.540886525181	-60.3977157201411
2693047	62.2730569519539	97.7296393381952	115.883631403728	-57.4948250511108
2296687	74.2347669356441	103.182708395841	127.11204480257	-54.2668839657468
1958656	88.0867156658509	106.684798070802	138.350697924529	-50.4544457152581
1670375	103.345812590658	108.80208798792	150.06082543607	-46.4732771236814
1424531	119.169906745919	108.527957697351	161.18245647647	-42.3241058474163
1214875	134.579255268479	105.968456575153	171.291826242639	-38.217092805717
1036062	148.989477633148	101.979434271445	180.548246902932	-34.3906285484035
883578.1	162.194990542752	96.3668311946899	188.663141900238	-30.716318963165
753531.2	173.913816962234	89.5975959604076	195.636767843516	-27.2567940665871
642624.9	183.977007490671	82.4408124727117	201.603637979038	-24.1373368101533
548046.8	192.316146557652	75.0912345229786	206.456275586307	-21.3285200815055
467390.6	199.068675446301	68.1013725906611	210.395186476965	-18.8858119247904
398593.7	204.871313415354	61.1197316789158	213.794005203689	-16.6115419006879
339937.5	209.473739572134	55.0281404182649	216.581032891217	-14.7188674977204
289906.2	212.878196011952	49.506862543313	218.559044141819	-13.0919710271803
247234.4	216.101398647268	44.6734344774256	220.670637478832	-11.6799108115024
210843.7	218.374551462822	40.4264020590278	222.084980829472	-10.4880955722728
179812.5	220.520010189771	37.3420587836904	223.659348671817	-9.61108626399995
153343.8	222.280880643863	34.43564566587	224.932442284871	-8.80622953086787
130781.2	223.842824763468	32.3192415862259	226.163974971252	-8.21579652298556
111531.3	225.235744650508	30.7836868197845	227.329663797946	-7.78257740450919
95109.37	226.507171236428	29.7651874879934	228.454514089182	-7.48631238780295
81109.37	227.755911077336	29.0054634294342	229.595452784727	-7.25773660501346
69171.88	229.120732416325	29.4822489683452	231.009768250662	-7.33227841415998
59000	230.356679272183	29.9408859306394	232.29433126019	-7.40557117531311
50312.5	231.851242219797	31.021856803957	233.917408754517	-7.62095174008074
42906.25	233.148171033954	32.3254596906224	235.378429344508	-7.89360516604964
36593.75	234.678073991977	34.4433325943598	237.19220386174	-8.34959935688246
31203.13	236.733281040647	37.0901658719649	239.621215164017	-8.90442303779739
26609.38	238.26487905993	40.0309266643511	241.604279107489	-9.53720335631783
22703.13	240.226242525468	43.431013431399	244.12066796071	-10.2479288532879
19359.37	242.575725902031	47.9236362287405	247.26434782694	-11.1755303348708
16500	244.988481199955	53.1708357327814	250.692029576497	-12.2452253496462
14112.02	247.373551612225	58.6919003145714	254.24085666899	-13.3472122657552
12011.13	250.25740382299	65.4384168187498	258.671518656322	-14.6538539767069
10236.38	253.474900197221	72.94236463823	263.761471009334	-16.0542086646303
8750.684	256.840411669264	81.4847126578675	269.456407352603	-17.6020541481762
7449.463	260.691596951665	91.6455457335512	276.331349604076	-19.369010151736
6363.206	264.625694445078	102.742141101239	283.870931443512	-21.2189304440308
5414.761	269.568100514286	116.024158315493	293.476687537016	-23.2874112168562
4620.567	274.746248140869	130.752346217042	304.272372897615	-25.4498799863949
3941.215	280.226594579496	147.981077119695	316.899579512385	-27.8374810623743
3361.769	286.867425687475	167.335737368629	332.105659273162	-30.2559015381538
2867.244	294.469216104386	189.630000095946	350.245137253211	-32.7804108792797
2442.658	302.073978867407	214.636545504366	370.563807427054	-35.3954303633024
2083.003	311.309726060664	243.657512032459	395.326104260538	-38.0497604816491
1777.843	321.489411647038	276.653132513177	424.137239028256	-40.7131719810486
1513.548	333.49042189915	315.044449704223	458.768859871624	-43.3708023362952
1292.065	346.219610367778	357.689011812585	497.804628116975	-45.9334878553107
1101.762	361.571670994053	406.888089807959	544.327099171998	-48.3748495612072
939.101	379.354210992497	463.299015542416	598.79511955285	-50.6890146365847
801.2801	398.983949513709	527.004565703181	661.000759637654	-52.871410878238
684.3433	422.418747715311	598.438531122849	732.506842257357	-54.7829470518212
582.9476	449.051198712036	681.687917588901	816.299819950616	-56.6257340195666
497.0677	478.316049429546	776.719949492768	912.184259391673	-58.3746017455342
423.5089	515.73621063833	882.154331536172	1021.85131189015	-59.688050195092
361.5036	554.873550673642	1005.88341661785	1148.77591594879	-61.117637189723
308.1262	603.415105964625	1142.05582720541	1291.66609561455	-62.1498779534307
262.7298	658.472399787622	1296.57725981191	1454.2002929251	-63.0760642292596
224.2111	721.351153804381	1471.81489786619	1639.08101711775	-63.890065368802
191.2854	797.509281411765	1670.39476249656	1851.01045824	-64.4784357286218
163.1722	880.180839764089	1893.75027938982	2088.3027633408	-65.0718481170388
139.1537	978.665166828734	2146.11586532917	2358.7282200757	-65.4862111944774
118.6706	1090.89204734808	2427.92507661949	2661.74109121174	-65.8051195032473
101.1982	1221.29161556024	2747.56560316934	3006.77068529627	-66.0348755790947
86.24196	1371.42776325238	3106.93537428737	3396.15393199684	-66.1829278733565
73.61024	1543.34071576798	3506.16145103272	3830.80522679699	-66.2418852304755
62.69291	1740.00784715267	3965.63382672327	4330.57489899491	-66.3094942503009
53.57697	1961.68764791912	4457.14221132602	4869.73665817594	-66.2446354278921
45.65746	2219.50053674575	5021.60191724241	5490.2339155875	-66.1550248287336
38.96512	2508.72721989452	5648.44071692136	6180.50117679907	-66.0518351298306
33.18414	2843.10451841579	6353.5388538978	6960.65365254049	-65.8922663838867
28.30617	3217.38052518531	7137.36418776266	7829.01685990001	-65.7351040606823
24.17237	3640.11042426389	8004.06040618836	8792.91685885558	-65.5447674811398
20.61345	4114.66112675583	8968.7733891624	9867.58999422773	-65.3554622256286
17.55618	4657.07166979068	10066.0372821148	11091.1416500959	-65.1722876185253
14.98558	5262.01530781689	11261.2806600169	12430.0139663385	-64.9549074310526
12.76553	5944.21259451265	12617.2441069865	13947.347856279	-64.7740246551298
10.8809	6706.41364886538	14131.3799417267	15641.9910205551	-64.6121067822259
9.278505	7545.31372164029	15803.321977679	17512.1884608454	-64.4778054750472
7.923394	8461.41390707069	17663.005722285	19585.1294724401	-64.4033782574597
6.75822	9522.64898111524	19748.1444677289	21924.1887771435	-64.2564145830086
5.761429	10695.5541789347	22098.5650365832	24550.7933857671	-64.1733357027147
4.919708	12087.4767114235	24761.1437947763	27553.971315852	-63.980077038417
4.191257	13477.9427949156	27639.5793865396	30750.6307357726	-64.0046569278282
3.564097	15116.8630112566	31013.1517239889	34501.2337048439	-64.0138242525503
3.051758	16935.737886435	34558.9979651327	38485.6279422861	-63.8927009746596
2.604164	18922.2544977874	38706.3720732226	43084.0452412465	-63.9475330356536
2.214424	21251.6636352368	43368.9120260638	48295.918436134	-63.8941906649269
1.892567	23827.0441564	48506.175106216	54042.3635370061	-63.8389575334763
1.607507	26756.6671472354	54455.4634985712	60673.8555036036	-63.8328268850684
1.376413	29948.2891925105	60712.0722933078	67696.7927431284	-63.7436173563666
1.17375	33616.7340706412	68016.9683859662	75870.8955924057	-63.699556901921
1.001604	37662.9628509514	76078.4289818886	84890.6716139318	-63.6620854621194
