EC-Lab ASCII FILE
freq/Hz	Re(Z)/Ohm	-Im(Z)/Ohm	|Z|/Ohm	Phase(Z)/deg
6999984	-0.539356039606574	0.492159659584514	0.730154824665586	-137.619706840724
5969734	-1.07386038898289	0.7573028681442	1.31403339726428	-144.807920746876
5091109	-0.958491135202278	0.855463127517672	1.28472659301645	-138.250762556281
4341796	0.0691552175380016	1.50969776650876	1.5112808442888	-87.3772669688203
3702781	-29.5748825617262	-7.714342204087	30.5644361011561	165.380657930403
3157797	43.8978705479135	-32.1318840045788	54.4011121975009	36.2029742684937
2693047	-20.1440433265455	1.18872031845429	20.179086637835	-176.622834716003
2296687	14.4660204286324	-10.4989170965184	17.8743673242209	35.9707945811728
1958656	-15.2842894309337	-0.179241783707068	15.2853403961305	179.328112241493
1670375	-3.79970236433817	11.943496956798	12.5333498161744	-107.647940802754
1424531	-9.47854181108145	0.833345248887738	9.51510479018823	-174.975523759223
1214875	5.58238422570841	1.9765394338259	5.92196941708642	-19.497387075313
1036062	4.28925057123262	2.52967545730443	4.97965143178795	-30.530869713615
883578.1	3.18470474482156	3.39971662804425	4.65837068755692	-46.8703082278173
753531.2	2.27110068144337	4.65873156990299	5.1828253053391	-64.0110740551336
642624.9	1.54531804219108	6.04912124883492	6.24338655976285	-75.6696192704556
548046.8	1.06109203422243	7.3243793238836	7.40084108633768	-81.7568374774845
467390.6	0.907408467845638	8.25100506831548	8.30075145784318	-83.7240880670662
398593.7	0.897719495536899	8.95181753636645	8.99671815147418	-84.2733254094786
339937.5	1.05337013621878	9.39488602598041	9.45375439098349	-83.6026210144985
289906.2	1.46691340093099	35.6015654703113	35.6317737260257	-87.6405410756829
247234.4	2.51899273350794	34.1895786600158	34.2822492456501	-85.7862204675215
210843.7	3.50353243592032	31.8480092249287	32.0401378136969	-83.7222546021218
179812.5	4.26523706093014	30.3820287238077	30.6799595267042	-82.0086524284445
153343.8	5.23935843514654	31.6275184288227	32.0585526619257	-80.5939050407075
130781.2	6.16277366586294	36.3181716333434	36.8373366307289	-80.3693055850162
111531.3	14.3952340954147	68.865683351389	70.3541406607711	-78.1932691748888
95109.37	15.2269388609791	70.1616530916463	71.7949666176433	-77.7551856447318
81109.37	15.5515232428462	72.2176842216778	73.8731601430097	-77.8473745539684
69171.88	15.860678991557	84.1967985935116	85.6776635504819	-79.3318509053728
59000	22.2589381169124	147.771976949455	149.439009290221	-81.4339184641488
50312.5	24.3952503476311	96.6738610184786	99.7043812665407	-75.8373240170904
42906.25	24.5016494831538	61.1889996224974	65.9122484990257	-68.1775658455455
36593.75	24.8939684069678	44.9586851224806	51.3905928258224	-61.0263650129586
31203.13	25.0267458858882	34.4678620135182	42.5954401482101	-54.0169998825564
26609.38	25.0265837415919	26.8311107677358	36.6911215255874	-46.992955573443
22703.13	24.7750700855975	21.0006484006983	32.4781669894718	-40.2863585307218
19359.37	24.1356808109791	15.8188567047301	28.8577080804115	-33.2413840733522
16500	26.9777861467729	12.1856533164048	29.6022143112406	-24.3083188753762
14112.02	18.4182402412669	1.21783298204399	18.458458515195	-3.7829492586889
12011.13	18.1519760001985	0.168752618793097	18.1527604005047	-0.532643625228726
10236.38	16.9238700120362	-0.355596762581887	16.9276054196055	1.20369609206941
8750.684	22.8133188474253	14.0877989018014	26.8125641207977	-31.6963747308922
7449.463	22.1284327641724	17.7056771512644	28.3400518698062	-38.6644353338434
6363.206	21.6314846290239	22.2013229140357	30.9970944830153	-45.744818582952
5414.761	21.3246515357022	27.5059207441763	34.8039715995752	-52.2144746590749
4620.567	21.1421161408495	33.2513539467843	39.4035736222934	-57.550688436136
3941.215	21.013362292206	40.1002194791125	45.2723866953853	-62.3445117164366
3361.769	21.13253992748	47.5602606475387	52.0438530150138	-66.0428969882265
2867.244	21.9937161523178	55.7722165617544	59.9521783624245	-68.4782540964301
2442.658	22.9505467657959	64.8802099386045	68.8198317240486	-70.5194162415837
2083.003	24.4516169638191	75.0841357368199	78.9652392606425	-71.9618374908255
1777.843	26.674194446019	86.0991653768229	90.1364461687365	-72.7866102369163
1513.548	27.7955346400955	99.5385975034712	103.346621323035	-74.3979394441628
1292.065	30.2511191519209	114.0103017169	117.955411522839	-75.1397479015186
1101.762	32.6896762302814	130.978193501092	134.995933660426	-75.9863503396039
939.101	35.0885427816598	150.415227017433	154.453702944431	-76.868991823003
801.2801	37.5162321123602	173.355646140691	177.368677394755	-77.788818267306
684.3433	39.5821739379062	200.929996631735	204.79163078622	-78.8557229776191
582.9476	43.1089276101929	234.056654960161	237.993481782256	-79.5641279955188
497.0677	46.5498223401149	270.776287622532	274.748401084586	-80.2454894054884
423.5089	50.7228175272069	316.463665007539	320.502816661417	-80.8940776295765
361.5036	53.7960057373838	366.826854035608	370.750524038683	-81.6569136380137
308.1262	62.8432252575565	427.321852140268	431.918089777867	-81.6338807346494
262.7298	67.0583206800018	498.447793248222	502.938386849169	-82.3377593859676
224.2111	75.5703507513319	580.931748826413	585.826403217877	-82.5883138297784
191.2854	87.640404514808	676.21277963219	681.868435874115	-82.6153574377085
163.1722	100.68246859684	791.549277908856	797.926825492655	-82.751091139375
139.1537	112.204000722951	920.108593471528	926.924787433365	-83.0473103194577
118.6706	139.013230644375	1077.74230564822	1086.67067489563	-82.650250567432
101.1982	164.760204901144	1257.7498883167	1268.49545000356	-82.5369768113346
86.24196	200.49971758876	1460.36389459059	1474.0633776663	-82.1824878234872
73.61024	245.523691427364	1705.33446436098	1722.91831448547	-81.8072004676765
62.69291	402.609133787684	1967.20928789712	2007.98568147234	-78.4335676741667
53.57697	499.192665091237	2285.37736338519	2339.2612102872	-77.6784665959638
45.65746	615.224874865332	2656.75151067612	2727.05523158826	-76.9618109858142
38.96512	750.73971697245	3077.16762781298	3167.42335855187	-76.2893304216691
33.18414	946.135231964363	3583.90060619041	3706.68523511456	-75.2115395132485
28.30617	1169.6631218673	4154.34081003787	4315.86137226423	-74.2753264760048
24.17237	1457.20192389431	4802.36761705436	5018.58268601143	-73.1204154483596
20.61345	1810.73194691426	5537.2835852829	5825.82695309596	-71.89187934404
17.55618	2289.84210334483	6374.19484074323	6773.01533484226	-70.2398701333393
14.98558	2834.38565656583	7319.14797647667	7848.80049126672	-68.8307950277741
12.76553	3565.81830926795	8363.57609435544	9092.00007153455	-66.9089799913463
10.8809	4501.27548602797	9529.54970967256	10539.1555008092	-64.7163278051601
9.278505	53540.3868532444	40540.6624772996	67157.4146203782	-37.1329248770366
7.923394	62388.9648659982	44369.3164621051	76557.2934498418	-35.4193914582948
6.75822	72872.7584964567	47801.0285321576	87151.4616034352	-33.2629502047609
5.761429	110949.337357215	60151.8193601486	126206.167964727	-28.4645890987229
4.919708	125342.745555987	59914.4606687518	138926.406635817	-25.5480333862787
4.191257	140597.787454879	57492.0324696099	151898.227885298	-22.2402105251176
3.564097	156098.015442075	52626.2707462583	164730.430696981	-18.6308170580674
3.051758	170464.84416087	45650.4333503868	176471.59873438	-14.9920079378152
2.604164	183831.351523201	36971.0806436392	187512.203887654	-11.3712985543111
2.214424	195777.537420117	26707.3637692232	197590.808080201	-7.7681617863837
1.892567	205655.409282571	16160.9136696773	206289.414410484	-4.49321123280267
1.607507	214316.472971557	5118.34006305481	214377.582764545	-1.36808685081716
1.376413	221672.85305876	-5249.7553742422	221735.007869078	1.35665061322635
1.17375	228291.993718519	-15315.994720378	228805.18807547	3.83819327633762
1.001604	233371.514532146	-25121.9164264296	234719.778629676	6.14410145692948
