EC-Lab ASCII FILE
freq/Hz	Re(Z)/Ohm	-Im(Z)/Ohm	|Z|/Ohm	Phase(Z)/deg
6999984	-0.783766442796443	104.616386523652	104.619322398413	-90.4292412561437
5969734	14.6219763339661	105.339840765017	106.34982014235	-82.0974035909103
5091109	17.0647113141252	92.2713116825873	93.8360236362326	-79.5220728933563
4341796	15.8697195839881	92.7844804656505	94.1318639725948	-80.294133522295
3702781	13.9285979251886	104.997587192573	105.917416681222	-82.4434700991693
3157797	17.5017635718744	108.09748265384	109.505148208762	-80.8032065232688
2693047	18.58118354365	123.262477217118	124.655118914481	-81.4275013368433
2296687	16.773582456744	136.645700246487	137.671349467803	-83.0018174705243
1958656	18.556401332984	160.747717943011	161.815230600573	-83.4150346323726
1670375	21.4099336622412	180.601338589919	181.865963720242	-83.2392511808265
1424531	20.9535524089664	212.106646999278	213.139111989873	-84.3581804589375
1214875	28.9578431467492	239.269426839315	241.015383948258	-83.099277591476
1036062	30.7495703928377	275.655811271488	277.365575310071	-83.6349358341438
883578.1	32.2891152679595	317.664834081504	319.301634472511	-84.196090698695
753531.2	30.0692839223161	375.802977639791	377.004031594537	-85.4253143523686
642624.9	39.560820136841	440.981509446983	442.752470534089	-84.8736705872167
548046.8	31.9006870824541	495.931185177696	496.956129118142	-86.3195295832293
467390.6	172.550712729484	722.653185487838	742.96795015611	-76.5707099948579
398593.7	204.778544474524	800.100595282911	825.890558639081	-75.6438361696747
339937.5	169.777037743588	894.039276779185	910.016742136558	-79.2476261094886
289906.2	255.184636005872	1048.72704344916	1079.32738782774	-76.3241089598336
247234.4	211.431683336078	1191.9403170013	1210.54742823711	-79.941248816274
210843.7	238.613730882694	1374.07594966645	1394.64017869038	-80.1486022423318
179812.5	283.455168324541	1494.00062249493	1520.65271921801	-79.2570226173287
153343.8	316.035956864126	1821.89571615872	1849.10322226438	-80.1590873699827
130781.2	317.893578895726	1989.99737760021	2015.22849581849	-80.9239287307028
111531.3	345.808539118212	2421.51988828326	2446.08710292141	-81.8727468394395
95109.37	327.539284264021	2772.24365777376	2791.52590545082	-83.2617684221751
81109.37	431.111597338255	3097.4268924263	3127.28485483577	-82.0762614482699
69171.88	519.75414307103	3641.05468625941	3677.96459982571	-81.8760126988717
59000	364.622325730202	4272.85638073852	4288.38560426168	-85.122506157642
50312.5	425.048951090827	4934.77557615789	4953.04720327475	-85.0770706044881
42906.25	2025.42598120119	6851.60966722188	7144.71171127941	-73.531627257925
36593.75	1903.10584857229	7542.64175938637	7779.02671169788	-75.8391001862553
31203.13	2100.37255721194	8584.19999832985	8837.42352105042	-76.2510568409544
26609.38	2106.28164530534	9643.83823320705	9871.17208023527	-77.6796698073336
22703.13	2192.49463778517	11149.282373791	11362.8134802629	-78.8748024721969
19359.37	2349.63516161727	12808.7137186573	13022.4395763323	-79.6052090694297
16500	2561.00157237989	14869.1616493989	15088.0978658573	-80.2274985307213
14112.02	2751.16790279839	17268.9492601006	17486.7244896613	-80.9481075496574
12011.13	3209.90627929254	20001.0032731919	20256.9402984773	-80.8825038821149
10236.38	3186.41071028575	23383.6728392048	23599.7747587893	-82.2402992650159
8750.684	3910.30879766028	26913.2728888705	27195.8594731601	-81.7331743205456
7449.463	4220.15509394448	31071.5917301523	31356.87359515	-82.2653948164426
6363.206	5132.1633605644	36454.2880596827	36813.777566257	-81.9863643702139
5414.761	16387.182212738	49163.386587745	51822.5657571056	-71.5656944712721
4620.567	17887.3654887696	55206.3819799582	58031.9089419423	-72.0472082023
3941.215	18701.8626205845	61803.925712831	64571.5486804858	-73.1641894239075
3361.769	21418.0800482094	71626.3160864943	74760.0381826675	-73.3520049891514
2867.244	21581.2161173678	80449.851138764	83294.2221126642	-74.983559606566
2442.658	20848.9683006251	93346.2142669107	95646.1980277548	-77.4095775027089
2083.003	27970.7020958831	107939.764181131	111504.945483215	-75.4723499015921
1777.843	27586.0573834998	128784.596383259	131705.971115833	-77.9097696578581
1513.548	33629.1486356684	145484.274624664	149320.439997424	-76.9845001145013
1292.065	35468.2916001152	170909.412485464	174550.929488093	-78.2760042805057
1101.762	42432.4209818005	193025.4713904	197634.366839026	-77.6019767303138
939.101	41337.3258860816	227439.512482391	231165.538845304	-79.6988876689336
801.2801	55877.1754219136	258508.305003998	264478.359207652	-77.8030276206252
684.3433	130100.635237464	381432.246821326	403009.595672804	-71.1662855922864
582.9476	171335.291899577	404300.77911405	439106.937137801	-67.0336556075668
497.0677	204479.656955066	457801.515493519	501392.219421706	-65.9318004717507
423.5089	237985.475063146	524256.995299409	575745.154961286	-65.5844161605629
361.5036	268154.10525683	581384.730122904	640245.912588416	-65.2392663847761
308.1262	306152.99258865	658523.303395275	726211.123562296	-65.0658893559695
262.7298	351659.822890086	735820.284779877	815534.255889124	-64.4561476703912
224.2111	366414.178209223	829702.374040412	907009.029437434	-66.1727292246032
191.2854	435902.526663112	931539.798036789	1028483.0616387	-64.9233374565409
163.1722	539752.384492919	1026838.67226663	1160056.16046297	-62.2715741891164
139.1537	656331.091719812	1163158.08239211	1335555.02566993	-60.5654204667759
118.6706	778431.331546096	1285616.77913965	1502919.10651839	-58.805408711693
101.1982	858054.649464378	1383830.5680787	1628264.35894681	-58.198703702429
86.24196	1091166.47508528	1597272.16697546	1934404.98648668	-55.6613085404906
73.61024	1424773.14855607	1557428.45598561	2110820.20086035	-47.5469713838668
62.69291	1273505.54076581	162572.341488184	1283840.38282731	-7.27487950224377
53.57697	1416563.84196805	1588228.43732674	2128173.55671586	-48.2697691015802
45.65746	2164616.41268025	1708865.11203841	2757858.62313259	-38.289468834398
38.96512	2064478.9175735	2086756.89034937	2935409.25946043	-45.3074798979287
33.18414	2561165.72249889	2083636.79691295	3301683.23125537	-39.1300838635242
28.30617	2618463.84973033	2714134.72683792	3771323.40800575	-46.027819626701
24.17237	3102139.13588538	2093374.25298134	3742390.00926372	-34.0121211697842
20.61345	3385061.3780605	1880948.46767331	3872545.37368892	-29.0592448055553
17.55618	3374585.49070395	1925097.99361643	3885077.80090639	-29.7034384433548
14.98558	3650291.71874211	2201030.52048253	4262530.34992278	-31.0888790398709
12.76553	3918857.4919199	2564407.15130674	4683335.14492075	-33.1997816078477
10.8809	4176683.57952153	2169381.73499026	4706474.56548467	-27.4474973391185
9.278505	4196796.65466979	2539929.66330957	4905542.25903798	-31.1826092055763
7.923394	4995518.13824226	2575391.44153534	5620306.26804633	-27.272934287676
6.75822	4799259.07529599	2088527.83625285	5234007.66092427	-23.5175740927382
5.761429	4619680.08229236	2750596.42840986	5376543.94334407	-30.7699248944774
4.919708	4983609.82392756	2993666.98672548	5813639.90152102	-30.9933440571108
4.191257	5677864.77267261	3000582.2803332	6421965.61792464	-27.8551167033084
3.564097	6653272.52772069	2667374.19559872	7168048.57876039	-21.8464223621022
3.051758	6115415.33105675	1936138.96324177	6414587.96465579	-17.5677740832935
2.604164	6125600.91928823	1905886.64606506	6415246.7240188	-17.2827275802159
2.214424	5766554.32861668	2175555.06256905	6163293.65316611	-20.6700483354514
1.892567	5799430.928212	2799800.98345065	6439897.87481394	-25.7699342107549
1.607507	5272528.48994085	3127910.54931884	6130528.61356816	-30.6784006162832
1.376413	5484495.69868303	3842594.38764965	6696657.72582631	-35.0161838691274
1.17375	4907571.96141151	4254837.1879175	6495221.47829603	-40.9251033398895
1.001604	4190611.0379832	5169564.60617953	6654744.10395552	-50.9706921478269
